SpectraSuite Data File
++++++++++++++++++++++++++++++++++++
Date: Fri May 31 11:25:12 EEST 2013
User: OO Maya
Dark Spectrum Present: No
Reference Spectrum Present: No
Number of Sampled Component Spectra: 1
Spectrometers: MAYP11278
Integration Time (usec): 2500000 (MAYP11278)
Spectra Averaged: 1 (MAYP11278)
Boxcar Smoothing: 0 (MAYP11278)
Correct for Electrical Dark: No (MAYP11278)
Strobe/Lamp Enabled: No (MAYP11278)
Correct for Detector Non-linearity: No (MAYP11278)
Correct for Stray Light: No (MAYP11278)
Number of Pixels in Processed Spectrum: 2068
>>>>>Begin Processed Spectral Data<<<<<
188,05	2305,00
188,53	2217,00
189,01	2186,00
189,49	2190,00
189,96	7948,00
190,44	8957,00
190,92	9903,00
191,40	10150,00
191,88	10380,00
192,36	10031,00
192,83	9963,00
193,31	9774,00
193,79	10116,00
194,27	9990,00
194,75	10235,00
195,23	9965,00
195,70	10455,00
196,18	10069,00
196,66	10060,00
197,14	10815,00
197,62	10254,00
198,09	10021,00
198,57	10107,00
199,05	10130,00
199,53	10358,00
200,01	10427,00
200,48	10144,00
200,96	10270,00
201,44	10498,00
201,92	10374,00
202,39	10421,00
202,87	10008,00
203,35	10383,00
203,83	10244,00
204,31	10591,00
204,78	10670,00
205,26	10236,00
205,74	10295,00
206,22	10870,00
206,69	10371,00
207,17	10521,00
207,65	11185,00
208,13	10416,00
208,60	10738,00
209,08	10421,00
209,56	10681,00
210,04	10638,00
210,51	10508,00
210,99	10435,00
211,47	10710,00
211,94	10586,00
212,42	10370,00
212,90	11033,00
213,38	10763,00
213,85	10492,00
214,33	11068,00
214,81	10787,00
215,29	11043,00
215,76	10769,00
216,24	10787,00
216,72	10803,00
217,19	10888,00
217,67	10522,00
218,15	10573,00
218,62	11051,00
219,10	10390,00
219,58	10488,00
220,05	10545,00
220,53	10749,00
221,01	11105,00
221,49	10645,00
221,96	10904,00
222,44	10586,00
222,92	10952,00
223,39	10744,00
223,87	10969,00
224,35	10808,00
224,82	10660,00
225,30	10640,00
225,78	10800,00
226,25	10697,00
226,73	10905,00
227,21	11160,00
227,68	10793,00
228,16	11064,00
228,63	11036,00
229,11	11046,00
229,59	10800,00
230,06	10928,00
230,54	10747,00
231,02	11120,00
231,49	11239,00
231,97	10973,00
232,45	11143,00
232,92	10856,00
233,40	11056,00
233,87	11022,00
234,35	12093,00
234,83	11103,00
235,30	10804,00
235,78	10888,00
236,25	10833,00
236,73	11419,00
237,21	11620,00
237,68	10959,00
238,16	11092,00
238,63	11234,00
239,11	11174,00
239,59	11221,00
240,06	10941,00
240,54	11295,00
241,01	11492,00
241,49	11154,00
241,96	11210,00
242,44	11430,00
242,92	11483,00
243,39	10928,00
243,87	10995,00
244,34	11440,00
244,82	11607,00
245,29	10982,00
245,77	11534,00
246,24	11459,00
246,72	11090,00
247,20	11213,00
247,67	11159,00
248,15	11250,00
248,62	11411,00
249,10	10896,00
249,57	11329,00
250,05	11442,00
250,52	11372,00
251,00	11544,00
251,47	11252,00
251,95	11830,00
252,42	11698,00
252,90	11188,00
253,37	11614,00
253,85	11347,00
254,32	11312,00
254,80	11333,00
255,27	11302,00
255,75	11448,00
256,22	11128,00
256,70	11375,00
257,17	11485,00
257,65	11693,00
258,12	12216,00
258,60	11454,00
259,07	11089,00
259,55	11143,00
260,02	11094,00
260,50	11400,00
260,97	10905,00
261,45	10959,00
261,92	11618,00
262,40	11174,00
262,87	11495,00
263,35	11251,00
263,82	10995,00
264,30	11475,00
264,77	11699,00
265,25	11312,00
265,72	11478,00
266,19	11454,00
266,67	11652,00
267,14	11357,00
267,62	11307,00
268,09	11347,00
268,57	11215,00
269,04	10449,00
269,51	10512,00
269,99	10449,00
270,46	10895,00
270,94	11069,00
271,41	10908,00
271,89	11126,00
272,36	10997,00
272,83	11159,00
273,31	11012,00
273,78	11359,00
274,26	11969,00
274,73	11015,00
275,20	10965,00
275,68	10622,00
276,15	10701,00
276,63	10903,00
277,10	10700,00
277,57	10047,00
278,05	9819,00
278,52	9367,00
279,00	10515,00
279,47	9314,00
279,94	9809,00
280,42	12538,00
280,89	13823,00
281,36	15494,00
281,84	13822,00
282,31	13263,00
282,78	12360,00
283,26	11991,00
283,73	12077,00
284,21	11579,00
284,68	11373,00
285,15	11964,00
285,63	11719,00
286,10	11721,00
286,57	11652,00
287,05	11168,00
287,52	11600,00
287,99	11755,00
288,47	11302,00
288,94	11562,00
289,41	10831,00
289,89	11702,00
290,36	11096,00
290,83	11456,00
291,30	11315,00
291,78	11722,00
292,25	12104,00
292,72	11329,00
293,20	11790,00
293,67	11311,00
294,14	11629,00
294,62	11564,00
295,09	11343,00
295,56	11506,00
296,03	11577,00
296,51	11983,00
296,98	11974,00
297,45	11670,00
297,93	11640,00
298,40	11648,00
298,87	11409,00
299,34	12014,00
299,82	11407,00
300,29	11687,00
300,76	11480,00
301,23	11795,00
301,71	11879,00
302,18	11695,00
302,65	11271,00
303,12	11735,00
303,60	11727,00
304,07	11455,00
304,54	11504,00
305,01	11495,00
305,49	11746,00
305,96	11706,00
306,43	11643,00
306,90	11798,00
307,38	11523,00
307,85	11517,00
308,32	11647,00
308,79	11528,00
309,27	11903,00
309,74	12036,00
310,21	11617,00
310,68	11705,00
311,15	11789,00
311,63	11617,00
312,10	12037,00
312,57	11697,00
313,04	12194,00
313,51	11637,00
313,99	11688,00
314,46	11722,00
314,93	11630,00
315,40	11620,00
315,87	12030,00
316,34	11972,00
316,82	11843,00
317,29	11880,00
317,76	11818,00
318,23	12615,00
318,70	11794,00
319,17	11797,00
319,65	11511,00
320,12	11982,00
320,59	12393,00
321,06	12069,00
321,53	11788,00
322,00	11474,00
322,48	11663,00
322,95	12377,00
323,42	11860,00
323,89	12659,00
324,36	11670,00
324,83	12125,00
325,30	11838,00
325,78	11895,00
326,25	11970,00
326,72	11860,00
327,19	12108,00
327,66	12088,00
328,13	12149,00
328,60	12091,00
329,07	11876,00
329,54	11985,00
330,02	12007,00
330,49	11912,00
330,96	12268,00
331,43	12130,00
331,90	12535,00
332,37	11894,00
332,84	12649,00
333,31	12320,00
333,78	12102,00
334,25	12501,00
334,72	12179,00
335,20	12227,00
335,67	13145,00
336,14	11961,00
336,61	12249,00
337,08	12073,00
337,55	12290,00
338,02	12086,00
338,49	12086,00
338,96	12568,00
339,43	12388,00
339,90	11950,00
340,37	12048,00
340,84	12020,00
341,31	12332,00
341,78	12431,00
342,25	12078,00
342,72	12255,00
343,19	12459,00
343,67	12366,00
344,14	12146,00
344,61	12278,00
345,08	12089,00
345,55	12367,00
346,02	12591,00
346,49	12248,00
346,96	12159,00
347,43	12849,00
347,90	12238,00
348,37	12695,00
348,84	12468,00
349,31	12075,00
349,78	12398,00
350,25	12637,00
350,72	12537,00
351,19	12303,00
351,66	12606,00
352,13	13071,00
352,60	12615,00
353,07	12445,00
353,54	12618,00
354,01	12667,00
354,48	12636,00
354,94	12693,00
355,41	12632,00
355,88	13064,00
356,35	12418,00
356,82	13016,00
357,29	12386,00
357,76	13307,00
358,23	12878,00
358,70	12404,00
359,17	12480,00
359,64	12581,00
360,11	12666,00
360,58	12936,00
361,05	13201,00
361,52	12631,00
361,99	12659,00
362,46	12739,00
362,93	12875,00
363,39	12778,00
363,86	13298,00
364,33	12842,00
364,80	12560,00
365,27	12950,00
365,74	12619,00
366,21	12491,00
366,68	12966,00
367,15	12856,00
367,62	22355,00
368,09	12308,00
368,55	12795,00
369,02	13073,00
369,49	12682,00
369,96	13143,00
370,43	12934,00
370,90	12676,00
371,37	12848,00
371,84	13179,00
372,31	12831,00
372,77	12510,00
373,24	12848,00
373,71	12994,00
374,18	12729,00
374,65	12777,00
375,12	13101,00
375,59	12535,00
376,05	13305,00
376,52	12838,00
376,99	12671,00
377,46	12637,00
377,93	12984,00
378,40	12964,00
378,86	12998,00
379,33	13001,00
379,80	12929,00
380,27	13083,00
380,74	13346,00
381,21	12981,00
381,67	13308,00
382,14	13339,00
382,61	12584,00
383,08	13135,00
383,55	12957,00
384,02	13298,00
384,48	13059,00
384,95	14666,00
385,42	13212,00
385,89	13013,00
386,36	12949,00
386,82	13629,00
387,29	12797,00
387,76	12834,00
388,23	13441,00
388,69	13332,00
389,16	13488,00
389,63	13032,00
390,10	13380,00
390,57	13239,00
391,03	13367,00
391,50	13266,00
391,97	13261,00
392,44	13226,00
392,90	13216,00
393,37	13065,00
393,84	13901,00
394,31	13230,00
394,77	13596,00
395,24	12974,00
395,71	13421,00
396,18	14642,00
396,64	12900,00
397,11	13274,00
397,58	13532,00
398,05	13046,00
398,51	13233,00
398,98	13189,00
399,45	13095,00
399,92	13596,00
400,38	13043,00
400,85	13165,00
401,32	13249,00
401,78	13379,00
402,25	13438,00
402,72	13247,00
403,18	13038,00
403,65	13657,00
404,12	13265,00
404,59	13647,00
405,05	13854,00
405,52	13794,00
405,99	13088,00
406,45	13619,00
406,92	13398,00
407,39	13875,00
407,85	13270,00
408,32	13374,00
408,79	13509,00
409,25	13099,00
409,72	13819,00
410,19	13069,00
410,65	13676,00
411,12	13155,00
411,59	13648,00
412,05	13568,00
412,52	12977,00
412,99	13514,00
413,45	13240,00
413,92	13538,00
414,39	13410,00
414,85	13975,00
415,32	13300,00
415,78	13891,00
416,25	13564,00
416,72	13451,00
417,18	13984,00
417,65	13549,00
418,12	13311,00
418,58	13485,00
419,05	13435,00
419,51	13770,00
419,98	13309,00
420,45	13612,00
420,91	13159,00
421,38	13495,00
421,84	13345,00
422,31	13506,00
422,78	13274,00
423,24	13356,00
423,71	13612,00
424,17	13694,00
424,64	13340,00
425,11	13701,00
425,57	13486,00
426,04	13774,00
426,50	13421,00
426,97	13740,00
427,43	13698,00
427,90	13727,00
428,37	13166,00
428,83	13922,00
429,30	13488,00
429,76	13412,00
430,23	13528,00
430,69	14441,00
431,16	13251,00
431,62	13468,00
432,09	13948,00
432,55	13796,00
433,02	13406,00
433,48	13340,00
433,95	13545,00
434,42	13523,00
434,88	13684,00
435,35	13219,00
435,81	13697,00
436,28	13526,00
436,74	13211,00
437,21	13749,00
437,67	13473,00
438,14	13403,00
438,60	13194,00
439,07	13265,00
439,53	14506,00
440,00	13548,00
440,46	13725,00
440,93	13698,00
441,39	13126,00
441,86	13285,00
442,32	14108,00
442,79	13203,00
443,25	13533,00
443,72	13442,00
444,18	13179,00
444,64	13819,00
445,11	13436,00
445,57	13290,00
446,04	13334,00
446,50	13418,00
446,97	13263,00
447,43	13218,00
447,90	13240,00
448,36	13172,00
448,83	13337,00
449,29	13333,00
449,75	13209,00
450,22	12996,00
450,68	12808,00
451,15	13007,00
451,61	13194,00
452,08	13284,00
452,54	12889,00
453,00	13305,00
453,47	12935,00
453,93	12896,00
454,40	12894,00
454,86	12982,00
455,32	12743,00
455,79	12884,00
456,25	12963,00
456,72	12540,00
457,18	13104,00
457,64	12560,00
458,11	12575,00
458,57	12262,00
459,04	12329,00
459,50	12375,00
459,96	12286,00
460,43	12023,00
460,89	11898,00
461,36	12679,00
461,82	12295,00
462,28	11752,00
462,75	11597,00
463,21	12101,00
463,67	11675,00
464,14	11651,00
464,60	11590,00
465,06	11333,00
465,53	11327,00
465,99	11640,00
466,45	11411,00
466,92	11404,00
467,38	11308,00
467,84	10976,00
468,31	11079,00
468,77	11013,00
469,23	10801,00
469,70	10470,00
470,16	10685,00
470,62	10720,00
471,09	10346,00
471,55	10313,00
472,01	10090,00
472,48	10174,00
472,94	10177,00
473,40	10466,00
473,87	9973,00
474,33	9759,00
474,79	9762,00
475,25	9534,00
475,72	9813,00
476,18	9646,00
476,64	9656,00
477,11	9514,00
477,57	9384,00
478,03	9728,00
478,49	9455,00
478,96	9477,00
479,42	8833,00
479,88	9473,00
480,35	9055,00
480,81	8964,00
481,27	8681,00
481,73	8720,00
482,20	8772,00
482,66	8300,00
483,12	8462,00
483,58	8069,00
484,05	8379,00
484,51	8820,00
484,97	8356,00
485,43	8244,00
485,89	7751,00
486,36	8124,00
486,82	7691,00
487,28	8264,00
487,74	7604,00
488,21	7663,00
488,67	7745,00
489,13	7934,00
489,59	7892,00
490,05	8014,00
490,52	7465,00
490,98	7745,00
491,44	7421,00
491,90	7525,00
492,36	7277,00
492,83	7978,00
493,29	7648,00
493,75	7466,00
494,21	7260,00
494,67	7358,00
495,14	7327,00
495,60	7174,00
496,06	7538,00
496,52	7274,00
496,98	7398,00
497,44	7924,00
497,91	7621,00
498,37	7115,00
498,83	7331,00
499,29	7264,00
499,75	8002,00
500,21	7249,00
500,67	7080,00
501,14	7207,00
501,60	7146,00
502,06	7333,00
502,52	7153,00
502,98	7163,00
503,44	7187,00
503,90	7280,00
504,37	7086,00
504,83	7305,00
505,29	7276,00
505,75	6957,00
506,21	7110,00
506,67	7407,00
507,13	7129,00
507,59	7338,00
508,05	7221,00
508,51	6941,00
508,98	6846,00
509,44	6717,00
509,90	6982,00
510,36	7074,00
510,82	6888,00
511,28	7397,00
511,74	7456,00
512,20	6894,00
512,66	6680,00
513,12	6876,00
513,58	7162,00
514,04	6581,00
514,51	7292,00
514,97	7462,00
515,43	6716,00
515,89	7196,00
516,35	7373,00
516,81	7266,00
517,27	7772,00
517,73	7254,00
518,19	7045,00
518,65	8146,00
519,11	7088,00
519,57	6888,00
520,03	6749,00
520,49	6862,00
520,95	7095,00
521,41	7134,00
521,87	7237,00
522,33	7027,00
522,79	6702,00
523,25	7483,00
523,71	7318,00
524,17	6945,00
524,63	7586,00
525,09	7130,00
525,55	7320,00
526,01	7379,00
526,47	7060,00
526,93	7006,00
527,39	6879,00
527,85	6950,00
528,31	7223,00
528,77	7153,00
529,23	6843,00
529,69	6803,00
530,15	7161,00
530,61	7205,00
531,07	6756,00
531,53	7394,00
531,99	6993,00
532,45	7001,00
532,91	6999,00
533,37	7089,00
533,83	6944,00
534,29	6678,00
534,75	6956,00
535,21	6803,00
535,67	7049,00
536,12	6866,00
536,58	7172,00
537,04	6751,00
537,50	7175,00
537,96	6999,00
538,42	7025,00
538,88	7440,00
539,34	7188,00
539,80	8616,00
540,26	6619,00
540,72	7487,00
541,18	7063,00
541,63	6712,00
542,09	7186,00
542,55	7068,00
543,01	6861,00
543,47	7846,00
543,93	6751,00
544,39	7563,00
544,85	7265,00
545,31	6893,00
545,76	6898,00
546,22	7306,00
546,68	6960,00
547,14	7057,00
547,60	7129,00
548,06	7070,00
548,52	6900,00
548,98	6879,00
549,43	6829,00
549,89	7630,00
550,35	6862,00
550,81	6739,00
551,27	7065,00
551,73	7087,00
552,19	7585,00
552,64	6992,00
553,10	6753,00
553,56	7093,00
554,02	6882,00
554,48	6759,00
554,93	7074,00
555,39	7066,00
555,85	7434,00
556,31	7095,00
556,77	7312,00
557,23	6528,00
557,68	7109,00
558,14	7647,00
558,60	6956,00
559,06	6901,00
559,52	6801,00
559,97	6801,00
560,43	6778,00
560,89	6996,00
561,35	6923,00
561,81	6960,00
562,26	6827,00
562,72	6778,00
563,18	7061,00
563,64	7306,00
564,09	6732,00
564,55	7031,00
565,01	6864,00
565,47	6915,00
565,92	7041,00
566,38	7264,00
566,84	6853,00
567,30	6809,00
567,75	7018,00
568,21	7264,00
568,67	6808,00
569,13	6981,00
569,58	7160,00
570,04	7013,00
570,50	6939,00
570,96	7215,00
571,41	7151,00
571,87	6960,00
572,33	7137,00
572,78	7067,00
573,24	6793,00
573,70	6802,00
574,16	6995,00
574,61	7363,00
575,07	7223,00
575,53	6606,00
575,98	7044,00
576,44	6500,00
576,90	7241,00
577,36	6854,00
577,81	6828,00
578,27	6717,00
578,73	7366,00
579,18	7045,00
579,64	6918,00
580,10	7087,00
580,55	7102,00
581,01	6907,00
581,47	7000,00
581,92	7123,00
582,38	6966,00
582,84	6603,00
583,29	6938,00
583,75	7048,00
584,21	6864,00
584,66	7144,00
585,12	6858,00
585,57	7778,00
586,03	6906,00
586,49	6809,00
586,94	6940,00
587,40	6981,00
587,86	7287,00
588,31	6707,00
588,77	7048,00
589,22	6932,00
589,68	6845,00
590,14	7064,00
590,59	7080,00
591,05	6887,00
591,51	6614,00
591,96	7344,00
592,42	6867,00
592,87	7174,00
593,33	6959,00
593,78	7195,00
594,24	6934,00
594,70	6855,00
595,15	7326,00
595,61	6879,00
596,06	6761,00
596,52	7345,00
596,98	7173,00
597,43	7325,00
597,89	7087,00
598,34	6643,00
598,80	6973,00
599,25	7352,00
599,71	6727,00
600,16	7158,00
600,62	7235,00
601,08	7078,00
601,53	7255,00
601,99	6679,00
602,44	7760,00
602,90	6816,00
603,35	6966,00
603,81	6666,00
604,26	6615,00
604,72	7105,00
605,17	6971,00
605,63	7168,00
606,08	7020,00
606,54	6598,00
606,99	6976,00
607,45	6915,00
607,90	7050,00
608,36	7169,00
608,81	6962,00
609,27	7725,00
609,72	7229,00
610,18	6934,00
610,63	6877,00
611,09	7014,00
611,54	6649,00
612,00	7470,00
612,45	7183,00
612,91	6976,00
613,36	7876,00
613,82	6702,00
614,27	6677,00
614,73	6652,00
615,18	6743,00
615,64	6986,00
616,09	6879,00
616,54	6831,00
617,00	6944,00
617,45	6946,00
617,91	7137,00
618,36	6825,00
618,82	6886,00
619,27	6957,00
619,72	7274,00
620,18	6847,00
620,63	7212,00
621,09	7274,00
621,54	6979,00
622,00	7279,00
622,45	7325,00
622,90	7269,00
623,36	6786,00
623,81	6766,00
624,27	7367,00
624,72	6664,00
625,17	6981,00
625,63	7041,00
626,08	6730,00
626,54	6931,00
626,99	7054,00
627,44	6764,00
627,90	7141,00
628,35	7226,00
628,81	6556,00
629,26	6869,00
629,71	7074,00
630,17	6804,00
630,62	7132,00
631,07	6936,00
631,53	7202,00
631,98	7100,00
632,43	7340,00
632,89	6775,00
633,34	6933,00
633,79	6716,00
634,25	6852,00
634,70	6687,00
635,15	6897,00
635,61	6878,00
636,06	6678,00
636,51	6975,00
636,97	6965,00
637,42	6786,00
637,87	7232,00
638,33	7170,00
638,78	6834,00
639,23	7010,00
639,69	6718,00
640,14	6612,00
640,59	7017,00
641,05	7291,00
641,50	6630,00
641,95	6921,00
642,40	6910,00
642,86	6658,00
643,31	6781,00
643,76	7147,00
644,22	6819,00
644,67	6612,00
645,12	6808,00
645,57	6803,00
646,03	6968,00
646,48	6984,00
646,93	7050,00
647,38	7168,00
647,84	7058,00
648,29	7061,00
648,74	6621,00
649,19	7292,00
649,65	7123,00
650,10	8316,00
650,55	6712,00
651,00	6713,00
651,46	6778,00
651,91	6963,00
652,36	6790,00
652,81	7024,00
653,27	6800,00
653,72	6786,00
654,17	6978,00
654,62	7143,00
655,07	6940,00
655,53	6648,00
655,98	7192,00
656,43	6779,00
656,88	6957,00
657,33	7100,00
657,79	7093,00
658,24	6728,00
658,69	6936,00
659,14	6649,00
659,59	8216,00
660,05	6783,00
660,50	7284,00
660,95	6920,00
661,40	6744,00
661,85	6949,00
662,30	6704,00
662,76	6525,00
663,21	7006,00
663,66	6852,00
664,11	6773,00
664,56	6912,00
665,01	6599,00
665,47	6974,00
665,92	6637,00
666,37	6977,00
666,82	6961,00
667,27	7688,00
667,72	7324,00
668,17	6716,00
668,62	7018,00
669,08	6685,00
669,53	7662,00
669,98	6490,00
670,43	6761,00
670,88	7275,00
671,33	6965,00
671,78	7457,00
672,23	7647,00
672,69	6964,00
673,14	6997,00
673,59	7238,00
674,04	7966,00
674,49	7025,00
674,94	7139,00
675,39	6591,00
675,84	6643,00
676,29	6966,00
676,74	6858,00
677,19	6889,00
677,64	6818,00
678,10	7837,00
678,55	6833,00
679,00	6856,00
679,45	6950,00
679,90	6873,00
680,35	6916,00
680,80	6877,00
681,25	6514,00
681,70	6441,00
682,15	6842,00
682,60	6964,00
683,05	7115,00
683,50	7031,00
683,95	7043,00
684,40	7321,00
684,85	7048,00
685,30	7036,00
685,75	7040,00
686,20	6856,00
686,65	6624,00
687,10	6994,00
687,55	6783,00
688,00	6925,00
688,45	6929,00
688,90	7764,00
689,35	7101,00
689,80	6576,00
690,25	6889,00
690,70	6953,00
691,15	6634,00
691,60	6908,00
692,05	6627,00
692,50	6938,00
692,95	6905,00
693,40	7104,00
693,85	7097,00
694,30	6908,00
694,75	7036,00
695,20	8325,00
695,65	6957,00
696,10	6945,00
696,55	7493,00
697,00	6950,00
697,45	6800,00
697,90	7075,00
698,35	6799,00
698,80	7317,00
699,24	7139,00
699,69	6863,00
700,14	6847,00
700,59	7112,00
701,04	7151,00
701,49	8204,00
701,94	6691,00
702,39	7396,00
702,84	6782,00
703,29	6849,00
703,74	7048,00
704,19	6885,00
704,63	6765,00
705,08	7378,00
705,53	7300,00
705,98	7163,00
706,43	6678,00
706,88	7154,00
707,33	7061,00
707,78	6891,00
708,22	7081,00
708,67	7257,00
709,12	6976,00
709,57	6796,00
710,02	6990,00
710,47	6893,00
710,92	6741,00
711,37	7104,00
711,81	6936,00
712,26	7052,00
712,71	6791,00
713,16	7552,00
713,61	6956,00
714,06	7064,00
714,50	7419,00
714,95	7108,00
715,40	6916,00
715,85	7066,00
716,30	6819,00
716,75	6837,00
717,19	6652,00
717,64	6663,00
718,09	7055,00
718,54	7544,00
718,99	6715,00
719,43	6614,00
719,88	7057,00
720,33	6901,00
720,78	6802,00
721,23	7018,00
721,67	6764,00
722,12	7148,00
722,57	6966,00
723,02	6654,00
723,47	6546,00
723,91	7049,00
724,36	6631,00
724,81	7031,00
725,26	6517,00
725,70	6873,00
726,15	6937,00
726,60	7000,00
727,05	7551,00
727,49	6664,00
727,94	7367,00
728,39	7075,00
728,84	6879,00
729,28	7405,00
729,73	6837,00
730,18	7178,00
730,63	6651,00
731,07	6882,00
731,52	7090,00
731,97	6986,00
732,41	7012,00
732,86	6752,00
733,31	7211,00
733,76	6991,00
734,20	6783,00
734,65	7189,00
735,10	7186,00
735,54	6960,00
735,99	7755,00
736,44	6793,00
736,89	7014,00
737,33	7156,00
737,78	7156,00
738,23	6957,00
738,67	6867,00
739,12	6904,00
739,57	6727,00
740,01	7281,00
740,46	7053,00
740,91	6754,00
741,35	7087,00
741,80	7172,00
742,25	6991,00
742,69	6999,00
743,14	6770,00
743,59	6789,00
744,03	6909,00
744,48	7279,00
744,92	7255,00
745,37	7031,00
745,82	7206,00
746,26	7317,00
746,71	6452,00
747,16	6707,00
747,60	6660,00
748,05	7072,00
748,49	6870,00
748,94	6901,00
749,39	6998,00
749,83	7904,00
750,28	7025,00
750,73	6938,00
751,17	6628,00
751,62	6905,00
752,06	6789,00
752,51	6942,00
752,95	7552,00
753,40	6858,00
753,85	6978,00
754,29	6576,00
754,74	6921,00
755,18	6770,00
755,63	6830,00
756,07	6958,00
756,52	7299,00
756,97	6845,00
757,41	7359,00
757,86	6960,00
758,30	6902,00
758,75	6935,00
759,19	6886,00
759,64	6652,00
760,08	6848,00
760,53	7036,00
760,98	6898,00
761,42	7160,00
761,87	7346,00
762,31	6878,00
762,76	6598,00
763,20	6919,00
763,65	7207,00
764,09	6898,00
764,54	6657,00
764,98	6795,00
765,43	7078,00
765,87	6796,00
766,32	6715,00
766,76	6818,00
767,21	6983,00
767,65	7013,00
768,10	7082,00
768,54	7128,00
768,99	6877,00
769,43	7521,00
769,88	6730,00
770,32	6958,00
770,77	6780,00
771,21	6694,00
771,65	7136,00
772,10	6932,00
772,54	7096,00
772,99	6600,00
773,43	6894,00
773,88	6848,00
774,32	6451,00
774,77	6946,00
775,21	6779,00
775,65	7039,00
776,10	6943,00
776,54	6635,00
776,99	6901,00
777,43	6810,00
777,88	7103,00
778,32	7175,00
778,76	6857,00
779,21	6993,00
779,65	7847,00
780,10	7427,00
780,54	6968,00
780,99	7290,00
781,43	7157,00
781,87	6746,00
782,32	7068,00
782,76	6647,00
783,20	6875,00
783,65	7184,00
784,09	7218,00
784,54	6962,00
784,98	6786,00
785,42	6854,00
785,87	6749,00
786,31	7127,00
786,75	7241,00
787,20	7355,00
787,64	6741,00
788,09	6756,00
788,53	7114,00
788,97	6718,00
789,42	6880,00
789,86	6793,00
790,30	7058,00
790,75	6664,00
791,19	6784,00
791,63	7262,00
792,08	6932,00
792,52	6967,00
792,96	6800,00
793,41	8235,00
793,85	7251,00
794,29	7020,00
794,74	7037,00
795,18	6992,00
795,62	6704,00
796,06	7095,00
796,51	6954,00
796,95	7006,00
797,39	6817,00
797,84	6742,00
798,28	6967,00
798,72	7222,00
799,16	6994,00
799,61	6731,00
800,05	7490,00
800,49	7077,00
800,94	6802,00
801,38	7028,00
801,82	6964,00
802,26	6763,00
802,71	7261,00
803,15	7536,00
803,59	7203,00
804,03	7061,00
804,48	6956,00
804,92	6835,00
805,36	7488,00
805,80	7682,00
806,25	7493,00
806,69	7217,00
807,13	7688,00
807,57	6990,00
808,01	7001,00
808,46	6725,00
808,90	7160,00
809,34	7045,00
809,78	6818,00
810,23	6770,00
810,67	7131,00
811,11	7413,00
811,55	8093,00
811,99	6828,00
812,44	6898,00
812,88	7167,00
813,32	7495,00
813,76	7269,00
814,20	6998,00
814,64	7236,00
815,09	7242,00
815,53	7046,00
815,97	6867,00
816,41	6804,00
816,85	6844,00
817,29	7211,00
817,74	6990,00
818,18	7286,00
818,62	6815,00
819,06	7195,00
819,50	7307,00
819,94	6919,00
820,39	7111,00
820,83	6824,00
821,27	7081,00
821,71	6809,00
822,15	7442,00
822,59	6794,00
823,03	6995,00
823,47	7051,00
823,92	6724,00
824,36	7038,00
824,80	6959,00
825,24	7075,00
825,68	7149,00
826,12	6726,00
826,56	6877,00
827,00	6460,00
827,44	7050,00
827,88	7274,00
828,33	7344,00
828,77	6771,00
829,21	7277,00
829,65	7115,00
830,09	6822,00
830,53	7581,00
830,97	6890,00
831,41	7707,00
831,85	7425,00
832,29	7214,00
832,73	6741,00
833,17	6972,00
833,61	6933,00
834,05	7366,00
834,49	7165,00
834,93	6937,00
835,37	6901,00
835,82	7284,00
836,26	6902,00
836,70	7086,00
837,14	6988,00
837,58	7291,00
838,02	6775,00
838,46	6836,00
838,90	7065,00
839,34	7007,00
839,78	7492,00
840,22	7704,00
840,66	7081,00
841,10	7349,00
841,54	6595,00
841,98	6796,00
842,42	6662,00
842,86	6891,00
843,30	7283,00
843,74	7090,00
844,18	7184,00
844,62	7061,00
845,06	6798,00
845,50	7172,00
845,94	6934,00
846,37	7153,00
846,81	6844,00
847,25	6820,00
847,69	7026,00
848,13	6785,00
848,57	6932,00
849,01	6875,00
849,45	7166,00
849,89	7359,00
850,33	7232,00
850,77	6923,00
851,21	7224,00
851,65	6776,00
852,09	7094,00
852,53	7364,00
852,97	6865,00
853,40	6841,00
853,84	7215,00
854,28	6695,00
854,72	7216,00
855,16	6650,00
855,60	6864,00
856,04	7323,00
856,48	7492,00
856,92	6946,00
857,36	7156,00
857,79	7051,00
858,23	6768,00
858,67	7305,00
859,11	6641,00
859,55	6836,00
859,99	6928,00
860,43	6928,00
860,87	7007,00
861,30	7109,00
861,74	6832,00
862,18	6917,00
862,62	7063,00
863,06	6801,00
863,50	6914,00
863,94	7150,00
864,37	6813,00
864,81	7014,00
865,25	6971,00
865,69	6679,00
866,13	6935,00
866,57	6629,00
867,00	7188,00
867,44	6671,00
867,88	7098,00
868,32	6996,00
868,76	6850,00
869,19	7132,00
869,63	7060,00
870,07	7462,00
870,51	7854,00
870,95	6694,00
871,38	6881,00
871,82	7025,00
872,26	6745,00
872,70	7041,00
873,14	7186,00
873,57	6932,00
874,01	7314,00
874,45	7183,00
874,89	6885,00
875,32	6794,00
875,76	7401,00
876,20	6546,00
876,64	7143,00
877,07	6898,00
877,51	6989,00
877,95	7061,00
878,39	6951,00
878,82	7048,00
879,26	6905,00
879,70	7500,00
880,14	6815,00
880,57	6736,00
881,01	6811,00
881,45	7124,00
881,89	7181,00
882,32	6993,00
882,76	6978,00
883,20	6951,00
883,63	6953,00
884,07	6672,00
884,51	7180,00
884,94	7098,00
885,38	7108,00
885,82	7288,00
886,26	6881,00
886,69	6857,00
887,13	7514,00
887,57	6814,00
888,00	6790,00
888,44	6960,00
888,88	6873,00
889,31	7926,00
889,75	6680,00
890,19	7296,00
890,62	6826,00
891,06	7183,00
891,50	7083,00
891,93	6648,00
892,37	6820,00
892,81	6924,00
893,24	6776,00
893,68	6951,00
894,11	7035,00
894,55	6909,00
894,99	7224,00
895,42	6892,00
895,86	6783,00
896,30	7127,00
896,73	7182,00
897,17	6766,00
897,60	6673,00
898,04	6831,00
898,48	7065,00
898,91	7294,00
899,35	6836,00
899,78	6768,00
900,22	6834,00
900,66	7177,00
901,09	7145,00
901,53	6840,00
901,96	7488,00
902,40	7600,00
902,84	6813,00
903,27	6880,00
903,71	7629,00
904,14	6806,00
904,58	7137,00
905,01	6768,00
905,45	6912,00
905,88	6732,00
906,32	7364,00
906,76	6980,00
907,19	7341,00
907,63	7027,00
908,06	6971,00
908,50	7154,00
908,93	7404,00
909,37	6937,00
909,80	6665,00
910,24	7100,00
910,67	7034,00
911,11	6967,00
911,54	6876,00
911,98	6907,00
912,41	6995,00
912,85	6823,00
913,28	7132,00
913,72	7114,00
914,15	6988,00
914,59	6654,00
915,02	6737,00
915,46	6883,00
915,89	6785,00
916,33	7237,00
916,76	6841,00
917,20	7261,00
917,63	6840,00
918,07	7300,00
918,50	6785,00
918,94	6894,00
919,37	6912,00
919,81	7072,00
920,24	7237,00
920,67	7013,00
921,11	7444,00
921,54	7059,00
921,98	6931,00
922,41	6718,00
922,85	6756,00
923,28	7034,00
923,72	7425,00
924,15	7111,00
924,58	6642,00
925,02	7152,00
925,45	6824,00
925,89	7206,00
926,32	7612,00
926,75	6957,00
927,19	7207,00
927,62	6703,00
928,06	7659,00
928,49	6994,00
928,92	6713,00
929,36	7185,00
929,79	6886,00
930,23	7129,00
930,66	7215,00
931,09	6870,00
931,53	7147,00
931,96	6599,00
932,39	7490,00
932,83	7241,00
933,26	7842,00
933,70	6892,00
934,13	7236,00
934,56	7226,00
935,00	7200,00
935,43	7061,00
935,86	6796,00
936,30	6924,00
936,73	6790,00
937,16	7055,00
937,60	6783,00
938,03	7212,00
938,46	6744,00
938,90	6943,00
939,33	7200,00
939,76	6694,00
940,19	6979,00
940,63	7280,00
941,06	7602,00
941,49	6801,00
941,93	7211,00
942,36	6726,00
942,79	6880,00
943,23	7103,00
943,66	6655,00
944,09	6611,00
944,52	7164,00
944,96	6923,00
945,39	7154,00
945,82	6924,00
946,26	7072,00
946,69	7031,00
947,12	7410,00
947,55	6881,00
947,99	7012,00
948,42	7113,00
948,85	6662,00
949,28	6788,00
949,72	6721,00
950,15	7759,00
950,58	7328,00
951,01	6837,00
951,45	6913,00
951,88	7087,00
952,31	6604,00
952,74	7229,00
953,17	6913,00
953,61	7530,00
954,04	6665,00
954,47	6775,00
954,90	6967,00
955,33	6769,00
955,77	6923,00
956,20	7138,00
956,63	6729,00
957,06	7189,00
957,49	7883,00
957,93	6688,00
958,36	7048,00
958,79	6971,00
959,22	6920,00
959,65	6775,00
960,08	6867,00
960,52	6511,00
960,95	6921,00
961,38	7138,00
961,81	7135,00
962,24	7262,00
962,67	7140,00
963,11	6929,00
963,54	6983,00
963,97	6903,00
964,40	6990,00
964,83	6961,00
965,26	6827,00
965,69	7204,00
966,13	6816,00
966,56	6898,00
966,99	7155,00
967,42	6849,00
967,85	6795,00
968,28	7291,00
968,71	8218,00
969,14	7190,00
969,57	6978,00
970,01	7181,00
970,44	6740,00
970,87	6910,00
971,30	7044,00
971,73	6806,00
972,16	6974,00
972,59	6729,00
973,02	6810,00
973,45	6934,00
973,88	7097,00
974,31	6892,00
974,74	7151,00
975,17	7064,00
975,61	6836,00
976,04	6891,00
976,47	6749,00
976,90	7022,00
977,33	6707,00
977,76	7223,00
978,19	6998,00
978,62	6914,00
979,05	6881,00
979,48	6874,00
979,91	7240,00
980,34	7191,00
980,77	6882,00
981,20	7142,00
981,63	7297,00
982,06	6929,00
982,49	6997,00
982,92	6888,00
983,35	6900,00
983,78	6822,00
984,21	7290,00
984,64	7106,00
985,07	6716,00
985,50	6561,00
985,93	6946,00
986,36	7275,00
986,79	6865,00
987,22	6755,00
987,65	7129,00
988,08	7083,00
988,51	7033,00
988,94	6992,00
989,37	7049,00
989,80	7023,00
990,23	6900,00
990,66	7107,00
991,09	7021,00
991,51	7086,00
991,94	7494,00
992,37	6869,00
992,80	6728,00
993,23	6994,00
993,66	6776,00
994,09	6870,00
994,52	7179,00
994,95	7215,00
995,38	7070,00
995,81	7033,00
996,24	6593,00
996,67	6808,00
997,09	6522,00
997,52	7259,00
997,95	7231,00
998,38	6875,00
998,81	7003,00
999,24	6741,00
999,67	7436,00
1000,10	6983,00
1000,53	6988,00
1000,95	7280,00
1001,38	6784,00
1001,81	7012,00
1002,24	7122,00
1002,67	6999,00
1003,10	7051,00
1003,53	7028,00
1003,95	7148,00
1004,38	6737,00
1004,81	7145,00
1005,24	7008,00
1005,67	7389,00
1006,10	6961,00
1006,52	6649,00
1006,95	7072,00
1007,38	6988,00
1007,81	6887,00
1008,24	6658,00
1008,67	6927,00
1009,09	6924,00
1009,52	8158,00
1009,95	7295,00
1010,38	7230,00
1010,81	7100,00
1011,23	7179,00
1011,66	7275,00
1012,09	6922,00
1012,52	7130,00
1012,95	6997,00
1013,37	7090,00
1013,80	7173,00
1014,23	6764,00
1014,66	7379,00
1015,08	6706,00
1015,51	7229,00
1015,94	6859,00
1016,37	6969,00
1016,80	6749,00
1017,22	7019,00
1017,65	6926,00
1018,08	6974,00
1018,51	6917,00
1018,93	6522,00
1019,36	7885,00
1019,79	7332,00
1020,21	7184,00
1020,64	6908,00
1021,07	6955,00
1021,50	7060,00
1021,92	7105,00
1022,35	7092,00
1022,78	7022,00
1023,21	8107,00
1023,63	7332,00
1024,06	7345,00
1024,49	7198,00
1024,91	7066,00
1025,34	7094,00
1025,77	7219,00
1026,19	6869,00
1026,62	6689,00
1027,05	7714,00
1027,47	7200,00
1027,90	7143,00
1028,33	6998,00
1028,75	7038,00
1029,18	6805,00
1029,61	7708,00
1030,03	6983,00
1030,46	6987,00
1030,89	7080,00
1031,31	7419,00
1031,74	6669,00
1032,17	7040,00
1032,59	7152,00
1033,02	6883,00
1033,45	7254,00
1033,87	6867,00
1034,30	6752,00
1034,73	7189,00
1035,15	7255,00
1035,58	6876,00
1036,00	7502,00
1036,43	6899,00
1036,86	6904,00
1037,28	7034,00
1037,71	6677,00
1038,13	7304,00
1038,56	7245,00
1038,99	7197,00
1039,41	7331,00
1039,84	7543,00
1040,26	6877,00
1040,69	6937,00
1041,11	7113,00
1041,54	6984,00
1041,97	7420,00
1042,39	7418,00
1042,82	7254,00
1043,24	7276,00
1043,67	6947,00
1044,09	7212,00
1044,52	6753,00
1044,95	6993,00
1045,37	6860,00
1045,80	6768,00
1046,22	6991,00
1046,65	7201,00
1047,07	6801,00
1047,50	7080,00
1047,92	7251,00
1048,35	6791,00
1048,77	7300,00
1049,20	7193,00
1049,62	7181,00
1050,05	6971,00
1050,47	6989,00
1050,90	7120,00
1051,32	7186,00
1051,75	7408,00
1052,17	7332,00
1052,60	7067,00
1053,02	7244,00
1053,45	6540,00
1053,87	7026,00
1054,30	6577,00
1054,72	6893,00
1055,15	6848,00
1055,57	7116,00
1056,00	7162,00
1056,42	7592,00
1056,85	7372,00
1057,27	7332,00
1057,70	7048,00
1058,12	8194,00
1058,54	6860,00
1058,97	7192,00
1059,39	7190,00
1059,82	6900,00
1060,24	6957,00
1060,67	6924,00
1061,09	7324,00
1061,51	7077,00
1061,94	6949,00
1062,36	7312,00
1062,79	7445,00
1063,21	7057,00
1063,64	6859,00
1064,06	6846,00
1064,48	7185,00
1064,91	7386,00
1065,33	6899,00
1065,76	6884,00
1066,18	6699,00
1066,60	7266,00
1067,03	7001,00
1067,45	6962,00
1067,87	7088,00
1068,30	6866,00
1068,72	7577,00
1069,15	7016,00
1069,57	6964,00
1069,99	6676,00
1070,42	7271,00
1070,84	7333,00
1071,26	7263,00
1071,69	6940,00
1072,11	7209,00
1072,53	6873,00
1072,96	6772,00
1073,38	6813,00
1073,80	7287,00
1074,23	6897,00
1074,65	6704,00
1075,07	6926,00
1075,50	6844,00
1075,92	7091,00
1076,34	6858,00
1076,77	6809,00
1077,19	7010,00
1077,61	7202,00
1078,04	6854,00
1078,46	7245,00
1078,88	7383,00
1079,30	6561,00
1079,73	7064,00
1080,15	6842,00
1080,57	7018,00
1081,00	7241,00
1081,42	6959,00
1081,84	6871,00
1082,26	7104,00
1082,69	6933,00
1083,11	6949,00
1083,53	7014,00
1083,95	6975,00
1084,38	7293,00
1084,80	6978,00
1085,22	6972,00
1085,64	7341,00
1086,07	6789,00
1086,49	6885,00
1086,91	7101,00
1087,33	6574,00
1087,76	7074,00
1088,18	16408,00
1088,60	6965,00
1089,02	6750,00
1089,45	6937,00
1089,87	6951,00
1090,29	7282,00
1090,71	6971,00
1091,13	6724,00
1091,56	6932,00
1091,98	6916,00
1092,40	6829,00
1092,82	7007,00
1093,24	6879,00
1093,66	6990,00
1094,09	6906,00
1094,51	6969,00
1094,93	6920,00
1095,35	7011,00
1095,77	6866,00
1096,19	7034,00
1096,62	7119,00
1097,04	6727,00
1097,46	6965,00
1097,88	6798,00
1098,30	7148,00
1098,72	7112,00
1099,15	7066,00
1099,57	6954,00
1099,99	6907,00
1100,41	6771,00
1100,83	6867,00
1101,25	6869,00
1101,67	6942,00
1102,09	6718,00
1102,52	6807,00
1102,94	6944,00
1103,36	6873,00
1103,78	7053,00
1104,20	6797,00
1104,62	7453,00
1105,04	6416,00
1105,46	7016,00
1105,88	6900,00
1106,30	6793,00
1106,73	6818,00
1107,15	6445,00
1107,57	6596,00
1107,99	7144,00
1108,41	6556,00
1108,83	6999,00
1109,25	6902,00
1109,67	6964,00
1110,09	6422,00
1110,51	6708,00
1110,93	6533,00
1111,35	6696,00
1111,77	6458,00
1112,19	6559,00
1112,61	6501,00
1113,03	6641,00
1113,45	6524,00
1113,87	6599,00
1114,29	6768,00
1114,71	6883,00
1115,13	6598,00
1115,55	6685,00
1115,98	6574,00
1116,40	6860,00
1116,82	6675,00
1117,24	6574,00
1117,66	6314,00
1118,08	2095,00
1118,50	2192,00
1118,91	2187,00
1119,33	2188,00
>>>>>End Processed Spectral Data<<<<<
